12/02/2020	09:24 a. m.
Amplitude: 1.00 V
Freq  (Hz) 	 Gain (dB)  	 Phase (deg)
100.024              9.911            -25.672
112.131              9.872            -28.102
125.915              9.818            -30.836
141.189              9.757            -33.849
158.511              9.692            -36.898
177.883              9.602            -40.445
199.489              9.501            -43.923
223.890              9.363            -47.622
251.271              9.171            -51.467
281.818              8.885            -54.659
316.277              8.378            -56.965
354.834              7.606            -59.429
398.047              6.801            -61.732
446.662              5.970            -63.674
501.238              5.111            -65.249
562.333              4.226            -66.382
630.878              3.330            -67.698
707.991              2.418            -68.615
794.418              1.503            -69.466
891.276              0.534            -69.551
1000.054             -0.399            -69.893
1122.057             -1.351            -69.914
1258.962             -2.306            -69.252
1412.630             -3.231            -68.804
1584.925             -4.163            -68.057
1778.267             -5.042            -66.816
1995.265             -5.927            -65.510
2238.713             -6.787            -64.078
2511.963             -7.634            -62.392
2818.368             -8.461            -60.084
3162.213             -9.221            -57.898
3548.153             -9.962            -55.548
3981.031            -10.626            -52.945
4466.809            -11.270            -50.313
5011.819            -11.869            -47.347
5623.326            -12.353            -44.669
6309.524            -12.837            -41.354
7079.542            -13.242            -38.766
7943.250            -13.547            -36.081
8912.571            -13.885            -33.553
9999.983            -14.122            -30.874
