11/03/2020	04:08 p. m.
Amplitude: 1.00 V
Freq  (Hz) 	 Gain (dB)  	 Phase (deg)
100.024             10.127            -32.097
112.131             10.084            -34.923
125.915             10.038            -37.939
141.189              9.994            -41.061
158.511              9.929            -44.405
177.883              9.852            -48.341
199.489              9.767            -52.451
223.890              9.651            -56.466
251.271              9.504            -60.669
281.818              9.291            -64.841
316.277              8.949            -68.126
354.834              8.352            -69.980
398.047              7.464            -71.679
446.662              6.539            -72.724
501.238              5.603            -74.116
562.333              4.659            -75.270
630.878              3.693            -75.979
707.991              2.737            -76.512
794.418              1.772            -77.116
891.276              0.794            -77.650
1000.054             -0.190            -77.750
1122.057             -1.179            -77.340
1258.962             -2.190            -77.028
1412.630             -3.137            -76.719
1584.925             -4.120            -76.337
1778.267             -5.052            -75.775
1995.265             -6.017            -74.998
2238.713             -6.958            -73.938
2511.963             -7.881            -72.581
2818.368             -8.803            -71.514
3162.213             -9.699            -69.849
3548.153            -10.585            -67.693
3981.031            -11.463            -66.225
4466.809            -12.274            -63.566
5011.819            -13.072            -61.371
5623.326            -13.843            -59.032
6309.524            -14.527            -56.645
7079.542            -15.179            -53.977
7943.250            -15.779            -50.644
8912.571            -16.310            -47.955
9999.983            -16.807            -45.417
