12/02/2020	09:11 a. m.
Amplitude: 1.00 V
Freq  (Hz) 	 Gain (dB)  	 Phase (deg)
100.024              3.208             -4.888
112.131              3.180             -5.399
125.915              3.152             -5.851
141.189              3.122             -6.470
158.511              3.082             -7.177
177.883              3.034             -8.272
199.489              2.978             -9.205
223.890              2.916             -9.897
251.271              2.823            -10.974
281.818              2.708            -12.300
316.277              2.590            -13.043
354.834              2.448            -14.455
398.047              2.270            -15.932
446.662              2.053            -17.073
501.238              1.810            -18.367
562.333              1.539            -19.491
630.878              1.238            -20.670
707.991              0.929            -21.469
794.418              0.554            -22.102
891.276              0.158            -23.014
1000.054             -0.217            -22.487
1122.057             -0.596            -22.634
1258.962             -0.994            -22.088
1412.630             -1.344            -21.814
1584.925             -1.750            -21.021
1778.267             -2.056            -20.119
1995.265             -2.316            -18.955
2238.713             -2.576            -17.797
2511.963             -2.780            -16.768
2818.368             -2.965            -15.475
3162.213             -3.113            -14.625
3548.153             -3.252            -13.310
3981.031             -3.352            -12.469
4466.809             -3.421            -11.335
5011.819             -3.482            -10.911
5623.326             -3.563             -9.819
6309.524             -3.620             -9.152
7079.542             -3.630             -9.095
7943.250             -3.662             -8.898
8912.571             -3.670             -7.986
9999.983             -3.717             -7.918
