12/02/2020	09:14 a. m.
Amplitude: 1.00 V
Freq  (Hz) 	 Gain (dB)  	 Phase (deg)
100.024              4.974             -7.290
112.131              4.941             -8.353
125.915              4.897             -9.199
141.189              4.838            -10.315
158.511              4.768            -11.559
177.883              4.684            -12.537
199.489              4.592            -14.076
223.890              4.475            -15.641
251.271              4.340            -17.039
281.818              4.178            -18.955
316.277              3.955            -20.612
354.834              3.711            -22.426
398.047              3.456            -23.878
446.662              3.140            -25.786
501.238              2.761            -27.690
562.333              2.360            -29.152
630.878              1.905            -30.769
707.991              1.428            -31.961
794.418              0.921            -32.816
891.276              0.353            -33.189
1000.054             -0.192            -33.499
1122.057             -0.754            -33.475
1258.962             -1.312            -32.826
1412.630             -1.876            -32.129
1584.925             -2.359            -30.982
1778.267             -2.823            -29.781
1995.265             -3.234            -28.456
2238.713             -3.603            -26.834
2511.963             -3.925            -25.101
2818.368             -4.227            -23.280
3162.213             -4.479            -21.703
3548.153             -4.676            -20.169
3981.031             -4.855            -18.783
4466.809             -5.004            -17.233
5011.819             -5.136            -15.515
5623.326             -5.256            -14.479
6309.524             -5.291            -13.212
7079.542             -5.337            -12.768
7943.250             -5.409            -11.369
8912.571             -5.444            -11.083
9999.983             -5.482            -10.527
