12/02/2020	09:00 a. m.
Amplitude: 1.00 V
Freq  (Hz) 	 Gain (dB)  	 Phase (deg)
100.024              8.767            -14.695
112.131              8.713            -16.392
125.915              8.638            -18.327
141.189              8.537            -20.178
158.511              8.397            -22.389
177.883              8.205            -24.471
199.489              7.967            -26.802
223.890              7.696            -29.387
251.271              7.367            -32.092
281.818              6.997            -34.396
316.277              6.569            -36.847
354.834              6.092            -39.798
398.047              5.547            -42.184
446.662              4.974            -44.380
501.238              4.334            -46.455
562.333              3.665            -48.543
630.878              2.958            -50.188
707.991              2.225            -51.184
794.418              1.447            -52.412
891.276              0.654            -52.801
1000.054             -0.171            -53.461
1122.057             -0.988            -52.967
1258.962             -1.742            -52.609
1412.630             -2.585            -51.586
1584.925             -3.335            -50.577
1778.267             -4.058            -49.115
1995.265             -4.747            -47.460
2238.713             -5.386            -45.356
2511.963             -5.986            -43.468
2818.368             -6.540            -41.040
3162.213             -7.026            -38.482
3548.153             -7.461            -36.163
3981.031             -7.841            -33.649
4466.809             -8.183            -31.277
5011.819             -8.442            -28.630
5623.326             -8.727            -26.737
6309.524             -8.920            -24.543
7079.542             -9.095            -22.154
7943.250             -9.229            -20.857
8912.571             -9.338            -19.220
9999.983             -9.422            -17.515
