12/02/2020	09:05 a. m.
Amplitude: 1.00 V
Freq  (Hz) 	 Gain (dB)  	 Phase (deg)
100.024              1.500             -2.421
112.131              1.487             -2.515
125.915              1.490             -2.854
141.189              1.465             -3.333
158.511              1.456             -3.378
177.883              1.431             -4.100
199.489              1.406             -4.644
223.890              1.373             -5.134
251.271              1.339             -5.579
281.818              1.286             -6.135
316.277              1.235             -6.618
354.834              1.144             -7.593
398.047              1.075             -8.004
446.662              0.960             -8.670
501.238              0.845             -9.425
562.333              0.696             -9.814
630.878              0.530            -10.638
707.991              0.357            -10.916
794.418              0.171            -11.403
891.276             -0.015            -11.830
1000.054             -0.221            -11.554
1122.057             -0.407            -11.796
1258.962             -0.626            -11.612
1412.630             -0.822            -11.414
1584.925             -0.987            -10.756
1778.267             -1.188            -10.491
1995.265             -1.307             -9.922
2238.713             -1.419             -9.310
2511.963             -1.500             -8.869
2818.368             -1.564             -8.214
3162.213             -1.652             -7.682
3548.153             -1.813             -7.217
3981.031             -1.856             -6.752
4466.809             -1.873             -6.628
5011.819             -1.928             -5.977
5623.326             -1.967             -5.660
6309.524             -1.996             -5.854
7079.542             -1.981             -5.576
7943.250             -2.015             -5.740
8912.571             -2.020             -5.240
9999.983             -2.017             -5.297
