12/03/2020	03:59 p. m.
Amplitude: 0.25 V
Freq  (Hz) 	 Gain (dB)  	 Phase (deg)
100.024             10.702            -32.378
112.131             10.460            -35.393
125.915              9.995            -38.207
141.189              9.464            -40.084
158.511              8.895            -42.001
177.883              8.277            -43.609
199.489              7.655            -44.842
223.890              6.996            -45.829
251.271              6.325            -46.656
281.818              5.665            -46.934
316.277              5.014            -47.074
354.834              4.368            -46.878
398.047              3.753            -46.605
446.662              3.177            -45.983
501.238              2.624            -45.433
562.333              2.096            -44.750
630.878              1.608            -44.054
707.991              1.153            -43.445
794.418              0.718            -43.084
891.276              0.302            -42.728
1000.054             -0.096            -42.706
1122.057             -0.488            -42.823
1258.962             -0.892            -43.203
1412.630             -1.316            -43.571
1584.925             -1.753            -44.029
1778.267             -2.241            -44.831
1995.265             -2.743            -45.690
2238.713             -3.271            -46.320
2511.963             -3.847            -47.027
2818.368             -4.453            -47.893
3162.213             -5.098            -47.971
3548.153             -5.749            -48.281
3981.031             -6.420            -47.554
4466.809             -7.073            -46.926
5011.819             -7.753            -46.160
5623.326             -8.418            -42.288
6309.524             -8.997            -43.860
7079.542             -9.567            -42.754
7943.250            -10.116            -41.283
8912.571            -10.656            -39.182
9999.983            -11.133            -37.622
