25/02/2020	08:38 p. m.
Amplitude: 1.00 V
Freq  (Hz) 	 Gain (dB)  	 Phase (deg)
1000.054              0.018            176.076
1122.057              0.021            175.501
1258.962              0.009            174.901
1412.630              0.007            174.207
1584.925             -0.004            173.695
1778.267             -0.025            172.841
1995.265             -0.047            172.261
2238.713             -0.086            170.915
2511.963             -0.096            170.290
2818.368             -0.130            169.097
3162.213             -0.200            168.209
3548.153             -0.271            165.787
3981.031             -0.296            164.449
4466.809             -0.413            162.586
5011.819             -0.519            161.109
5623.326             -0.627            158.480
6309.524             -0.753            155.154
7079.542             -0.869            154.170
7943.250             -1.146            151.172
8912.571             -1.336            148.634
9999.983             -1.627            145.733
11220.202             -1.957            142.641
12589.246             -2.337            139.298
14125.369             -2.775            136.481
15848.875             -3.280            132.720
17782.860             -3.847            129.672
19952.655             -4.458            126.610
22387.132             -5.104            123.561
25118.887             -5.817            120.468
28183.870             -6.560            117.725
31622.685             -7.354            115.244
35481.341             -8.148            112.326
39810.687             -9.028            109.877
44668.280             -9.908            107.780
50118.752            -10.827            105.911
56234.188            -11.778            103.613
63095.801            -12.711            102.624
70794.486            -13.651            101.086
79432.875            -14.569             99.533
89125.149            -15.522             98.725
100000.016            -16.437             97.397
112201.832            -17.362             96.491
125892.460            -18.300             95.684
141253.695            -19.259             94.565
158489.309            -20.219             93.626
177827.850            -21.158             92.621
199526.176            -22.106             91.596
223872.066            -22.991             90.730
251188.688            -23.882             89.792
281838.328            -24.719             88.796
316227.786            -25.650             87.763
354813.412            -26.443             86.569
398107.246            -27.241             85.434
446683.541            -27.866             84.526
501187.146            -28.694             83.403
562341.325            -29.362             82.315
630957.261            -29.916             80.933
707945.786            -30.527             79.583
794328.190            -31.001             78.440
891250.931            -31.265             76.493
999999.978            -31.325             75.138
1122018.509            -31.275             73.057
1258925.349            -31.338             71.117
1412537.508            -31.185             69.149
1584893.279            -30.871             66.532
1778279.431            -30.419             63.628
1995262.317            -29.776             59.827
2238721.214            -29.118             55.231
2511886.507            -28.550             49.483
2818382.904            -28.003             42.642
3162277.676            -27.662             34.911
3548133.932            -27.630             26.843
3981071.711            -27.772             18.561
4466835.968            -28.269             12.041
