25/02/2020	08:29 p. m.
Amplitude: 1.00 V
Freq  (Hz) 	 Gain (dB)  	 Phase (deg)
1000.054              0.014            175.917
1258.962              0.006            175.253
1584.925             -0.034            173.432
1995.265             -0.069            172.134
2511.963             -0.123            169.843
3162.213             -0.199            167.558
3981.031             -0.332            164.905
5011.819             -0.521            159.970
6309.524             -0.824            156.457
7943.250             -1.123            153.412
9999.983             -1.624            145.533
12589.246             -2.358            139.387
15848.875             -3.294            133.026
19952.655             -4.463            126.746
25118.887             -5.807            120.813
31622.685             -7.346            115.148
39810.687             -9.010            110.146
50118.752            -10.836            105.691
63095.801            -12.707            102.628
79432.875            -14.557             99.875
100000.016            -16.413             98.171
125892.460            -18.264             95.628
158489.309            -20.189             93.596
199526.176            -22.070             91.422
251188.688            -23.822             89.927
316227.786            -25.584             87.830
398107.246            -27.211             85.662
501187.146            -28.631             83.510
630957.261            -29.881             80.913
794328.190            -30.957             78.178
999999.978            -31.321             74.705
1258925.349            -31.343             71.127
1584893.279            -30.900             66.491
1995262.317            -29.774             60.023
2511886.507            -28.545             49.523
3162277.676            -27.686             34.989
3981071.711            -27.758             18.804
